File: src/pwspy/examples/resources/SiliconProps.csv
,wavelength(nm),a(/cm),absorption depth (m),n,k,Reflection
0,250,1840000.0,5.43e-07,1.694,3.666,0.672613
1,260,1970000.0,5.08e-07,1.8,4.072,0.705174
2,270,2180000.0,4.59e-07,2.129,4.69,0.73209
3,280,2360000.0,4.24e-07,3.052,5.258,0.722956
4,290,2240000.0,4.46e-07,4.426,5.16,0.684235
5,300,1730000.0,5.78e-07,5.055,4.128,0.623488
6,310,1440000.0,6.94e-07,5.074,3.559,0.590476
7,320,1280000.0,7.81e-07,5.102,3.269,0.57413
8,330,1170000.0,8.55e-07,5.179,3.085,0.565677
9,340,1090000.0,9.17e-07,5.293,2.951,0.561749
10,350,1040000.0,9.62e-07,5.483,2.904,0.56538
11,360,1020000.0,9.8e-07,6.014,2.912,0.582911
12,370,697000.0,1.43e-06,6.863,2.051,0.584271
13,380,293000.0,3.41e-06,6.548,0.885,0.546502
14,390,150000.0,6.67e-06,5.976,0.465,0.510974
15,400,95200.0,1.05e-05,5.587,0.303,0.486021
16,410,67400.0,1.48e-05,5.305,0.22,0.466853
17,420,50000.0,2e-05,5.091,0.167,0.451522
18,430,39200.0,2.55e-05,4.925,0.134,0.439123
19,440,31100.0,3.22e-05,4.793,0.109,0.428907
20,450,25500.0,3.92e-05,4.676,0.091,0.4195857
21,460,21000.0,4.76e-05,4.577,0.077,0.411486
22,470,17200.0,5.81e-05,4.491,0.064,0.404281
23,480,14800.0,6.76e-05,4.416,0.057,0.397879
24,490,12700.0,7.87e-05,4.348,0.05,0.391965
25,500,11100.0,9.01e-05,4.293,0.045,0.387106
26,510,9700.0,0.000103,4.239,0.039,0.382265
27,520,8800.0,0.000114,4.192,0.036,0.377999
28,530,7850.0,0.000127,4.15,0.033,0.374142
29,540,7050.0,0.000142,4.11,0.03,0.370429
30,550,6390.0,0.000156,4.077,0.028,0.367336
31,560,5780.0,0.000173,4.044,0.026,0.364216
32,570,5320.0,0.000188,4.015,0.024,0.361452
33,580,4880.0,0.000205,3.986,0.023,0.358667
34,590,4490.0,0.000223,3.962,0.021,0.356345
35,600,4140.0,0.000242,3.939,0.02,0.354107
36,610,3810.0,0.000262,3.916,0.018,0.351854
37,620,3520.0,0.000284,3.895,0.017,0.349785
38,630,3270.0,0.000306,3.879,0.016,0.348201
39,640,3040.0,0.000329,3.861,0.015,0.346411
40,650,2810.0,0.000356,3.844,0.015,0.344714
41,660,2580.0,0.000388,3.83,0.014,0.343309
42,670,2380.0,0.00042,3.815,0.013,0.341799
43,680,2210.0,0.000452,3.8,0.012,0.340282
44,690,2050.0,0.000488,3.787,0.011,0.338962
45,700,1900.0,0.000526,3.774,0.011,0.337639
46,710,1770.0,0.000565,3.762,0.011,0.336413
47,720,1660.0,0.000602,3.751,0.01,0.335286
48,730,1540.0,0.000649,3.741,0.009,0.334258
49,740,1420.0,0.000704,3.732,0.008,0.33333
50,750,1300.0,0.000769,3.723,0.008,0.332401
51,760,1190.0,0.00084,3.714,0.007,0.331469
52,770,1100.0,0.000909,3.705,0.007,0.330535
53,780,1010.0,0.00099,3.696,0.006,0.329598
54,790,928.0,0.00108,3.688,0.006,0.328764
55,800,850.0,0.00118,3.681,0.005,0.328033
56,810,775.0,0.00129,3.674,0.005,0.3273
57,820,707.0,0.00141,3.668,0.005,0.326671
58,830,647.0,0.00155,3.662,0.004,0.326041
59,840,591.0,0.00169,3.656,0.004,0.32541
60,850,535.0,0.00187,3.65,0.004,0.324778
61,860,480.0,0.00208,3.644,0.003,0.324145
62,870,432.0,0.00231,3.638,0.003,0.323511
63,880,383.0,0.00261,3.632,0.003,0.322875
64,890,343.0,0.00292,3.626,0.002,0.322239
65,900,306.0,0.00327,3.62,0.002,0.321602
66,910,272.0,0.00368,3.614,0.002,0.320964
67,920,240.0,0.00417,3.608,0.002,0.320325
68,930,210.0,0.00476,3.602,0.002,0.319684
69,940,183.0,0.00546,3.597,0.001,0.31915
70,950,157.0,0.00637,3.592,0.001,0.318615
71,960,134.0,0.00746,3.587,0.001,0.318079
72,970,114.0,0.00877,3.582,0.001,0.317543
73,980,95.9,0.0104,3.578,0.001,0.317113
74,990,79.2,0.0126,3.574,0.001,0.316683
75,1000,64.0,0.0156,3.57,0.001,0.316252
76,1010,51.1,0.0196,3.566,-,
77,1020,39.9,0.0251,3.563,-,
78,1030,30.2,0.0331,3.56,-,
79,1040,22.6,0.0442,3.557,-,
80,1050,16.3,0.0613,3.554,-,
81,1060,11.1,0.0901,3.551,-,
82,1070,8.0,0.125,3.548,-,
83,1080,6.2,0.161,3.546,-,
84,1090,4.7,0.213,3.544,-,
85,1100,3.5,0.286,3.541,-,
86,1110,2.7,0.37,3.539,-,
87,1120,2.0,0.5,3.537,-,
88,1130,1.5,0.667,3.534,-,
89,1140,1.0,1.0,3.532,-,
90,1150,0.68,1.47,3.53,-,
91,1160,0.42,2.38,3.528,-,
92,1170,0.22,4.55,3.526,-,
93,1180,0.065,15.4,3.524,-,
94,1190,0.036,27.8,3.522,-,
95,1200,0.022,45.5,3.52,-,
96,1210,0.013,76.9,3.528,-,
97,1220,0.0082,122.0,3.516,-,
98,1230,0.0047,213.0,3.515,-,
99,1240,0.0024,417.0,3.513,-,
100,1250,0.001,1000.0,3.511,-,
101,1260,0.00036,2780.0,3.51,-,
102,1270,0.0002,5000.0,3.508,-,
103,1280,0.00012,8330.0,3.507,-,
104,1290,7.1e-05,14100.0,3.506,-,
105,1300,4.5e-05,22200.0,3.504,-,
106,1310,2.7e-05,37000.0,3.503,-,
107,1320,1.6e-05,62500.0,3.501,-,
108,1330,8e-06,125000.0,3.5,-,
109,1340,3.5e-06,286000.0,3.498,-,
110,1350,1.7e-06,588000.0,3.497,-,
111,1360,1e-06,1000000.0,3.496,-,
112,1370,6.7e-07,1490000.0,3.495,-,
113,1380,4.5e-07,2220000.0,3.493,-,
114,1390,2.5e-07,4000000.0,3.492,-,
115,1400,2e-07,5000000.0,3.491,-,
116,1410,1.5e-07,6670000.0,3.49,-,
117,1420,8.5e-08,11800000.0,3.489,-,
118,1430,7.7e-08,13000000.0,3.488,-,
119,1440,4.2e-08,23800000.0,3.487,-,
120,1450,3.2e-08,31300000.0,3.486,-,